03/12/2020 13:54
Laser wavelength: -3
N to average: 1
Int: 0.05 s
LambdaCenter: 700.0 nm
grating: 0 
Int: 0.05 s
LambdaCenter: 800.0 nm
grating: 0 
 -------------
Grating 0=300 gr 1000 nm/mirror
Grating 1=900 gr 600 nm/600 gr 1000 nm
Grating 2=1800 gr 500 nm
2.021554	-4.000000	1.735448	3.000000
2.020991	-1.000000	1.735038	6.000000
2.020428	2.000000	1.734628	2.000000
2.019865	4.000000	1.734219	5.000000
2.019303	8.000000	1.733809	3.000000
2.018741	5.000000	1.733400	2.000000
2.018179	3.000000	1.732991	9.000000
2.017617	-3.000000	1.732583	7.000000
2.017056	5.000000	1.732174	12.000000
2.016495	-4.000000	1.731766	7.000000
2.015935	4.000000	1.731358	2.000000
2.015374	10.000000	1.730950	8.000000
2.014814	10.000000	1.730542	8.000000
2.014255	3.000000	1.730134	9.000000
2.013695	-6.000000	1.729727	-2.000000
2.013136	7.000000	1.729320	2.000000
2.012578	4.000000	1.728913	4.000000
2.012019	4.000000	1.728506	-1.000000
2.011461	6.000000	1.728099	5.000000
2.010903	-1.000000	1.727693	5.000000
2.010346	9.000000	1.727286	4.000000
2.009789	2.000000	1.726880	-5.000000
2.009232	2.000000	1.726475	11.000000
2.008675	3.000000	1.726069	-3.000000
2.008119	-4.000000	1.725663	6.000000
2.007563	9.000000	1.725258	4.000000
2.007007	0.000000	1.724853	6.000000
2.006452	-3.000000	1.724448	8.000000
2.005897	8.000000	1.724043	8.000000
2.005342	1.000000	1.723639	6.000000
2.004788	-4.000000	1.723234	4.000000
2.004234	0.000000	1.722830	4.000000
2.003680	0.000000	1.722426	5.000000
2.003127	-3.000000	1.722023	-4.000000
2.002573	7.000000	1.721619	-1.000000
2.002021	-2.000000	1.721216	7.000000
2.001468	1.000000	1.720812	8.000000
2.000916	1.000000	1.720409	3.000000
2.000364	6.000000	1.720006	5.000000
1.999812	-7.000000	1.719604	8.000000
1.999261	-5.000000	1.719201	12.000000
1.998710	5.000000	1.718799	11.000000
1.998159	-1.000000	1.718397	9.000000
1.997609	6.000000	1.717995	5.000000
1.997058	0.000000	1.717593	5.000000
1.996509	-4.000000	1.717192	1.000000
1.995959	-3.000000	1.716791	3.000000
1.995410	-4.000000	1.716389	3.000000
1.994861	-1.000000	1.715989	3.000000
1.994312	8.000000	1.715588	4.000000
1.993764	-6.000000	1.715187	6.000000
1.993216	-9.000000	1.714787	13.000000
1.992668	-2.000000	1.714387	5.000000
1.992121	1.000000	1.713987	13.000000
1.991574	0.000000	1.713587	3.000000
1.991027	-1.000000	1.713187	5.000000
1.990480	8.000000	1.712788	0.000000
1.989934	8.000000	1.712388	7.000000
1.989388	15.000000	1.711989	12.000000
1.988843	-3.000000	1.711590	6.000000
1.988297	4.000000	1.711192	7.000000
1.987752	4.000000	1.710793	2.000000
1.987208	4.000000	1.710395	9.000000
1.986663	6.000000	1.709997	15.000000
1.986119	3.000000	1.709599	13.000000
1.985575	3.000000	1.709201	3.000000
1.985032	7.000000	1.708803	10.000000
1.984489	0.000000	1.708406	6.000000
1.983946	4.000000	1.708009	0.000000
1.983403	9.000000	1.707612	10.000000
1.982861	6.000000	1.707215	8.000000
1.982319	1.000000	1.706818	0.000000
1.981777	-4.000000	1.706422	7.000000
1.981235	10.000000	1.706025	2.000000
1.980694	4.000000	1.705629	1.000000
1.980153	5.000000	1.705233	-7.000000
1.979613	7.000000	1.704837	-6.000000
1.979073	10.000000	1.704442	-3.000000
1.978533	8.000000	1.704046	7.000000
1.977993	5.000000	1.703651	0.000000
1.977454	2.000000	1.703256	2.000000
1.976914	2.000000	1.702861	8.000000
1.976376	20.000000	1.702467	8.000000
1.975837	9.000000	1.702072	11.000000
1.975299	11.000000	1.701678	4.000000
1.974761	15.000000	1.701284	4.000000
1.974223	17.000000	1.700890	14.000000
1.973686	19.000000	1.700496	-2.000000
1.973149	22.000000	1.700103	5.000000
1.972612	31.000000	1.699709	5.000000
1.972076	37.000000	1.699316	7.000000
1.971540	54.000000	1.698923	9.000000
1.971004	73.000000	1.698530	5.000000
1.970468	97.000000	1.698138	-3.000000
1.969933	123.000000	1.697745	1.000000
1.969398	178.000000	1.697353	11.000000
1.968863	249.000000	1.696961	3.000000
1.968329	337.000000	1.696569	17.000000
1.967795	484.000000	1.696177	9.000000
1.967261	694.000000	1.695785	4.000000
1.966727	980.000000	1.695394	7.000000
1.966194	1372.000000	1.695003	7.000000
1.965661	1913.000000	1.694612	7.000000
1.965128	2634.000000	1.694221	3.000000
1.964596	3477.000000	1.693830	5.000000
1.964064	4523.000000	1.693440	2.000000
1.963532	5732.000000	1.693050	8.000000
1.963001	7208.000000	1.692659	9.000000
1.962469	8751.000000	1.692269	2.000000
1.961938	10408.000000	1.691880	3.000000
1.961408	12053.000000	1.691490	10.000000
1.960877	13728.000000	1.691101	10.000000
1.960347	15208.000000	1.690711	1.000000
1.959817	16611.000000	1.690322	0.000000
1.959288	17836.000000	1.689934	6.000000
1.958759	18818.000000	1.689545	0.000000
1.958230	19363.000000	1.689156	2.000000
1.957701	19745.000000	1.688768	0.000000
1.957173	19771.000000	1.688380	-1.000000
1.956645	19641.000000	1.687992	4.000000
1.956117	19037.000000	1.687604	9.000000
1.955589	18322.000000	1.687217	9.000000
1.955062	17224.000000	1.686829	12.000000
1.954535	16239.000000	1.686442	3.000000
1.954008	15144.000000	1.686055	8.000000
1.953482	14063.000000	1.685668	8.000000
1.952956	13028.000000	1.685281	-4.000000
1.952430	11838.000000	1.684895	4.000000
1.951905	10670.000000	1.684508	3.000000
1.951379	9752.000000	1.684122	5.000000
1.950854	8923.000000	1.683736	-1.000000
1.950330	8095.000000	1.683350	8.000000
1.949805	7272.000000	1.682964	2.000000
1.949281	6570.000000	1.682579	8.000000
1.948757	5891.000000	1.682194	-2.000000
1.948234	5320.000000	1.681809	9.000000
1.947711	4850.000000	1.681424	0.000000
1.947188	4435.000000	1.681039	5.000000
1.946665	4046.000000	1.680654	12.000000
1.946142	3718.000000	1.680270	4.000000
1.945620	3441.000000	1.679885	9.000000
1.945098	3171.000000	1.679501	3.000000
1.944577	3054.000000	1.679117	4.000000
1.944055	2884.000000	1.678734	6.000000
1.943534	2712.000000	1.678350	0.000000
1.943014	2511.000000	1.677967	4.000000
1.942493	2409.000000	1.677584	5.000000
1.941973	2257.000000	1.677201	4.000000
1.941453	2088.000000	1.676818	11.000000
1.940933	1988.000000	1.676435	9.000000
1.940414	1900.000000	1.676053	3.000000
1.939895	1823.000000	1.675670	5.000000
1.939376	1689.000000	1.675288	-1.000000
1.938858	1610.000000	1.674906	1.000000
1.938339	1493.000000	1.674524	8.000000
1.937821	1406.000000	1.674143	9.000000
1.937304	1322.000000	1.673761	5.000000
1.936786	1248.000000	1.673380	10.000000
1.936269	1167.000000	1.672999	13.000000
1.935752	1077.000000	1.672618	6.000000
1.935236	1020.000000	1.672237	1.000000
1.934719	977.000000	1.671856	10.000000
1.934203	925.000000	1.671476	5.000000
1.933688	888.000000	1.671096	2.000000
1.933172	865.000000	1.670716	5.000000
1.932657	822.000000	1.670336	-4.000000
1.932142	781.000000	1.669956	5.000000
1.931627	760.000000	1.669577	3.000000
1.931113	714.000000	1.669197	3.000000
1.930599	691.000000	1.668818	-3.000000
1.930085	693.000000	1.668439	10.000000
1.929571	674.000000	1.668060	6.000000
1.929058	683.000000	1.667681	14.000000
1.928545	677.000000	1.667303	6.000000
1.928032	651.000000	1.666925	3.000000
1.927520	619.000000	1.666546	8.000000
1.927007	584.000000	1.666168	-1.000000
1.926496	542.000000	1.665790	2.000000
1.925984	516.000000	1.665413	9.000000
1.925472	479.000000	1.665035	17.000000
1.924961	447.000000	1.664658	13.000000
1.924451	416.000000	1.664281	5.000000
1.923940	394.000000	1.663904	7.000000
1.923430	356.000000	1.663527	-5.000000
1.922920	357.000000	1.663150	-1.000000
1.922410	329.000000	1.662774	3.000000
1.921900	332.000000	1.662398	12.000000
1.921391	332.000000	1.662022	6.000000
1.920882	284.000000	1.661646	12.000000
1.920373	254.000000	1.661270	12.000000
1.919865	234.000000	1.660894	6.000000
1.919357	194.000000	1.660519	3.000000
1.918849	193.000000	1.660143	5.000000
1.918341	169.000000	1.659768	-4.000000
1.917834	165.000000	1.659393	5.000000
1.917327	154.000000	1.659019	-1.000000
1.916820	153.000000	1.658644	10.000000
1.916314	118.000000	1.658270	9.000000
1.915807	120.000000	1.657895	9.000000
1.915301	117.000000	1.657521	6.000000
1.914796	95.000000	1.657147	7.000000
1.914290	107.000000	1.656774	2.000000
1.913785	94.000000	1.656400	9.000000
1.913280	97.000000	1.656027	16.000000
1.912775	86.000000	1.655653	5.000000
1.912271	70.000000	1.655280	4.000000
1.911767	79.000000	1.654907	6.000000
1.911263	85.000000	1.654535	2.000000
1.910759	63.000000	1.654162	2.000000
1.910256	74.000000	1.653790	1.000000
1.909753	70.000000	1.653417	12.000000
1.909250	77.000000	1.653045	4.000000
1.908748	67.000000	1.652673	-2.000000
1.908245	58.000000	1.652302	8.000000
1.907743	74.000000	1.651930	9.000000
1.907241	60.000000	1.651559	9.000000
1.906740	69.000000	1.651187	5.000000
1.906239	57.000000	1.650816	4.000000
1.905738	52.000000	1.650445	7.000000
1.905237	59.000000	1.650075	12.000000
1.904737	46.000000	1.649704	1.000000
1.904236	37.000000	1.649334	9.000000
1.903737	48.000000	1.648964	1.000000
1.903237	41.000000	1.648593	-2.000000
1.902738	36.000000	1.648224	7.000000
1.902238	37.000000	1.647854	7.000000
1.901740	30.000000	1.647484	9.000000
1.901241	35.000000	1.647115	4.000000
1.900743	34.000000	1.646746	1.000000
1.900244	27.000000	1.646376	19.000000
1.899747	33.000000	1.646008	9.000000
1.899249	28.000000	1.645639	10.000000
1.898752	28.000000	1.645270	4.000000
1.898255	30.000000	1.644902	3.000000
1.897758	22.000000	1.644534	8.000000
1.897261	15.000000	1.644166	10.000000
1.896765	24.000000	1.643798	10.000000
1.896269	25.000000	1.643430	10.000000
1.895773	20.000000	1.643062	4.000000
1.895278	28.000000	1.642695	11.000000
1.894783	20.000000	1.642328	4.000000
1.894288	15.000000	1.641960	4.000000
1.893793	20.000000	1.641594	7.000000
1.893299	19.000000	1.641227	14.000000
1.892804	16.000000	1.640860	7.000000
1.892311	14.000000	1.640494	7.000000
1.891817	12.000000	1.640127	11.000000
1.891323	16.000000	1.639761	1.000000
1.890830	22.000000	1.639395	3.000000
1.890337	17.000000	1.639030	16.000000
1.889845	14.000000	1.638664	7.000000
1.889352	20.000000	1.638298	3.000000
1.888860	19.000000	1.637933	5.000000
1.888368	21.000000	1.637568	4.000000
1.887877	14.000000	1.637203	6.000000
1.887385	15.000000	1.636838	-4.000000
1.886894	15.000000	1.636474	-3.000000
1.886403	12.000000	1.636109	8.000000
1.885913	5.000000	1.635745	7.000000
1.885423	13.000000	1.635381	10.000000
1.884932	8.000000	1.635017	3.000000
1.884443	5.000000	1.634653	9.000000
1.883953	18.000000	1.634289	14.000000
1.883464	15.000000	1.633926	-1.000000
1.882975	15.000000	1.633562	12.000000
1.882486	8.000000	1.633199	4.000000
1.881997	11.000000	1.632836	8.000000
1.881509	8.000000	1.632473	5.000000
1.881021	8.000000	1.632110	11.000000
1.880533	16.000000	1.631748	4.000000
1.880046	8.000000	1.631385	3.000000
1.879558	7.000000	1.631023	5.000000
1.879071	16.000000	1.630661	13.000000
1.878584	6.000000	1.630299	6.000000
1.878098	8.000000	1.629938	10.000000
1.877612	6.000000	1.629576	6.000000
1.877126	18.000000	1.629215	7.000000
1.876640	12.000000	1.628853	6.000000
1.876154	2.000000	1.628492	11.000000
1.875669	11.000000	1.628131	3.000000
1.875184	8.000000	1.627770	2.000000
1.874699	3.000000	1.627410	10.000000
1.874215	2.000000	1.627049	7.000000
1.873730	14.000000	1.626689	5.000000
1.873246	12.000000	1.626329	-1.000000
1.872763	5.000000	1.625969	14.000000
1.872279	6.000000	1.625609	8.000000
1.871796	5.000000	1.625249	1.000000
1.871313	2.000000	1.624890	5.000000
1.870830	2.000000	1.624531	10.000000
1.870347	6.000000	1.624171	5.000000
1.869865	8.000000	1.623812	-1.000000
1.869383	10.000000	1.623453	1.000000
1.868901	11.000000	1.623095	4.000000
1.868420	6.000000	1.622736	7.000000
1.867939	-1.000000	1.622378	7.000000
1.867458	4.000000	1.622020	12.000000
1.866977	1.000000	1.621662	12.000000
1.866496	8.000000	1.621304	0.000000
1.866016	6.000000	1.620946	3.000000
1.865536	1.000000	1.620588	6.000000
1.865056	11.000000	1.620231	6.000000
1.864577	6.000000	1.619873	4.000000
1.864097	1.000000	1.619516	12.000000
1.863618	-1.000000	1.619159	12.000000
1.863139	3.000000	1.618803	15.000000
1.862661	2.000000	1.618446	7.000000
1.862182	15.000000	1.618089	6.000000
1.861704	8.000000	1.617733	10.000000
1.861227	8.000000	1.617377	5.000000
1.860749	4.000000	1.617021	10.000000
1.860272	10.000000	1.616665	5.000000
1.859794	4.000000	1.616309	3.000000
1.859318	19.000000	1.615954	-7.000000
1.858841	7.000000	1.615598	4.000000
1.858365	-2.000000	1.615243	7.000000
1.857889	4.000000	1.614888	5.000000
1.857413	2.000000	1.614533	3.000000
1.856937	13.000000	1.614178	6.000000
1.856462	3.000000	1.613824	18.000000
1.855987	5.000000	1.613469	10.000000
1.855512	9.000000	1.613115	9.000000
1.855037	8.000000	1.612761	3.000000
1.854563	0.000000	1.612407	10.000000
1.854088	2.000000	1.612053	6.000000
1.853614	7.000000	1.611699	6.000000
1.853141	-1.000000	1.611346	3.000000
1.852667	2.000000	1.610992	10.000000
1.852194	9.000000	1.610639	6.000000
1.851721	3.000000	1.610286	3.000000
1.851248	13.000000	1.609933	3.000000
1.850776	6.000000	1.609580	7.000000
1.850304	1.000000	1.609228	10.000000
1.849832	4.000000	1.608875	9.000000
1.849360	-2.000000	1.608523	8.000000
1.848888	-2.000000	1.608171	11.000000
1.848417	0.000000	1.607819	8.000000
1.847946	3.000000	1.607467	19.000000
1.847475	0.000000	1.607115	11.000000
1.847005	13.000000	1.606764	1.000000
1.846534	1.000000	1.606412	10.000000
1.846064	1.000000	1.606061	5.000000
1.845594	1.000000	1.605710	9.000000
1.845125	3.000000	1.605359	5.000000
1.844656	10.000000	1.605008	6.000000
1.844186	6.000000	1.604658	9.000000
1.843718	5.000000	1.604307	8.000000
1.843249	2.000000	1.603957	2.000000
1.842780	0.000000	1.603607	5.000000
1.842312	4.000000	1.603257	8.000000
1.841844	2.000000	1.602907	4.000000
1.841377	4.000000	1.602557	13.000000
1.840909	8.000000	1.602208	15.000000
1.840442	2.000000	1.601858	3.000000
1.839975	6.000000	1.601509	10.000000
1.839508	4.000000	1.601160	3.000000
1.839042	10.000000	1.600811	4.000000
1.838575	5.000000	1.600462	9.000000
1.838109	7.000000	1.600114	16.000000
1.837644	1.000000	1.599765	1.000000
1.837178	9.000000	1.599417	16.000000
1.836713	6.000000	1.599069	12.000000
1.836248	3.000000	1.598721	14.000000
1.835783	-7.000000	1.598373	4.000000
1.835318	0.000000	1.598025	11.000000
1.834854	7.000000	1.597678	14.000000
1.834390	4.000000	1.597330	6.000000
1.833926	4.000000	1.596983	11.000000
1.833462	3.000000	1.596636	8.000000
1.832999	9.000000	1.596289	7.000000
1.832535	1.000000	1.595942	7.000000
1.832072	5.000000	1.595595	9.000000
1.831610	2.000000	1.595249	5.000000
1.831147	4.000000	1.594902	8.000000
1.830685	1.000000	1.594556	16.000000
1.830223	8.000000	1.594210	6.000000
1.829761	-1.000000	1.593864	4.000000
1.829299	4.000000	1.593519	10.000000
1.828838	0.000000	1.593173	19.000000
1.828377	-3.000000	1.592828	17.000000
1.827916	6.000000	1.592482	10.000000
1.827455	3.000000	1.592137	6.000000
1.826995	-6.000000	1.591792	14.000000
1.826535	13.000000	1.591447	3.000000
1.826075	7.000000	1.591102	3.000000
1.825615	14.000000	1.590758	16.000000
1.825156	-4.000000	1.590413	12.000000
1.824696	2.000000	1.590069	19.000000
1.824237	4.000000	1.589725	4.000000
1.823779	3.000000	1.589381	9.000000
1.823320	-2.000000	1.589037	2.000000
1.822862	-5.000000	1.588694	11.000000
1.822404	-9.000000	1.588350	14.000000
1.821946	-5.000000	1.588007	16.000000
1.821488	-5.000000	1.587664	17.000000
1.821031	1.000000	1.587321	12.000000
1.820574	5.000000	1.586978	13.000000
1.820117	9.000000	1.586635	18.000000
1.819660	3.000000	1.586292	24.000000
1.819203	5.000000	1.585950	-1.000000
1.818747	-4.000000	1.585607	22.000000
1.818291	3.000000	1.585265	15.000000
1.817835	3.000000	1.584923	5.000000
1.817380	4.000000	1.584581	10.000000
1.816924	8.000000	1.584240	9.000000
1.816469	2.000000	1.583898	15.000000
1.816014	1.000000	1.583556	11.000000
1.815560	0.000000	1.583215	14.000000
1.815105	9.000000	1.582874	17.000000
1.814651	-7.000000	1.582533	8.000000
1.814197	-7.000000	1.582192	13.000000
1.813743	3.000000	1.581851	19.000000
1.813290	3.000000	1.581511	10.000000
1.812836	0.000000	1.581170	22.000000
1.812383	0.000000	1.580830	7.000000
1.811930	17.000000	1.580490	25.000000
1.811478	5.000000	1.580150	18.000000
1.811025	-1.000000	1.579810	20.000000
1.810573	-6.000000	1.579471	11.000000
1.810121	-5.000000	1.579131	8.000000
1.809670	8.000000	1.578792	7.000000
1.809218	6.000000	1.578452	13.000000
1.808767	3.000000	1.578113	18.000000
1.808316	2.000000	1.577774	11.000000
1.807865	7.000000	1.577436	12.000000
1.807414	-3.000000	1.577097	14.000000
1.806964	-2.000000	1.576758	22.000000
1.806514	1.000000	1.576420	9.000000
1.806064	3.000000	1.576082	15.000000
1.805614	3.000000	1.575744	7.000000
1.805165	6.000000	1.575406	13.000000
1.804715	12.000000	1.575068	12.000000
1.804266	-7.000000	1.574730	14.000000
1.803818	3.000000	1.574393	18.000000
1.803369	7.000000	1.574055	18.000000
1.802921	3.000000	1.573718	21.000000
1.802472	-12.000000	1.573381	7.000000
1.802025	2.000000	1.573044	19.000000
1.801577	8.000000	1.572707	28.000000
1.801129	2.000000	1.572371	20.000000
1.800682	2.000000	1.572034	22.000000
1.800235	-2.000000	1.571698	18.000000
1.799788	5.000000	1.571362	22.000000
1.799342	0.000000	1.571026	30.000000
1.798895	2.000000	1.570690	23.000000
1.798449	9.000000	1.570354	20.000000
1.798003	-4.000000	1.570018	17.000000
1.797558	5.000000	1.569683	29.000000
1.797112	0.000000	1.569347	27.000000
1.796667	3.000000	1.569012	17.000000
1.796222	-5.000000	1.568677	24.000000
1.795777	2.000000	1.568342	23.000000
1.795332	7.000000	1.568008	26.000000
1.794888	6.000000	1.567673	29.000000
1.794444	-7.000000	1.567338	27.000000
1.794000	10.000000	1.567004	30.000000
1.793556	0.000000	1.566670	33.000000
1.793113	4.000000	1.566336	27.000000
1.792670	-2.000000	1.566002	33.000000
1.792226	1.000000	1.565668	24.000000
1.791784	-7.000000	1.565334	27.000000
1.791341	4.000000	1.565001	21.000000
1.790899	-4.000000	1.564668	31.000000
1.790456	-2.000000	1.564334	35.000000
1.790014	-4.000000	1.564001	31.000000
1.789573	0.000000	1.563668	35.000000
1.789131	6.000000	1.563336	34.000000
1.788690	0.000000	1.563003	32.000000
1.788249	-3.000000	1.562670	43.000000
1.787808	-4.000000	1.562338	43.000000
1.787367	4.000000	1.562006	44.000000
1.786927	3.000000	1.561674	46.000000
1.786487	4.000000	1.561342	49.000000
1.786047	3.000000	1.561010	51.000000
1.785607	-4.000000	1.560678	64.000000
1.785167	2.000000	1.560347	63.000000
1.784728	7.000000	1.560016	74.000000
1.784289	-2.000000	1.559684	82.000000
1.783850	1.000000	1.559353	94.000000
1.783411	4.000000	1.559022	119.000000
1.782973	-4.000000	1.558692	121.000000
1.782534	-7.000000	1.558361	149.000000
1.782096	0.000000	1.558030	164.000000
1.781658	12.000000	1.557700	203.000000
1.781221	6.000000	1.557370	240.000000
1.780783	6.000000	1.557040	283.000000
1.780346	3.000000	1.556710	325.000000
1.779909	8.000000	1.556380	386.000000
1.779472	4.000000	1.556050	491.000000
1.779036	0.000000	1.555721	602.000000
1.778600	6.000000	1.555391	757.000000
1.778163	3.000000	1.555062	909.000000
1.777727	6.000000	1.554733	1129.000000
1.777292	-6.000000	1.554404	1434.000000
1.776856	-6.000000	1.554075	1764.000000
1.776421	3.000000	1.553746	2238.000000
1.775986	4.000000	1.553418	2766.000000
1.775551	6.000000	1.553089	3519.000000
1.775116	4.000000	1.552761	4453.000000
1.774682	7.000000	1.552433	5569.000000
1.774248	11.000000	1.552105	7058.000000
1.773814	8.000000	1.551777	8863.000000
1.773380	14.000000	1.551449	11045.000000
1.772946	4.000000	1.551122	13731.000000
1.772513	1.000000	1.550794	17153.000000
1.772080	-6.000000	1.550467	21139.000000
1.771647	1.000000	1.550140	26059.000000
1.771214	4.000000	1.549812	31965.000000
1.770782	-6.000000	1.549486	39159.000000
1.770349	3.000000	1.549159	47482.000000
1.769917	1.000000	1.548832	57063.000000
1.769485	4.000000	1.548506	68589.000000
