03/12/2020 13:43
Laser wavelength: -3
N to average: 1
Int: 1.00 s
LambdaCenter: 700.0 nm
grating: 0 
Int: 1.00 s
LambdaCenter: 800.0 nm
grating: 0 
 -------------
Grating 0=300 gr 1000 nm/mirror
Grating 1=900 gr 600 nm/600 gr 1000 nm
Grating 2=1800 gr 500 nm
2.021554	3.000000	1.735448	2797.000000
2.020991	6.000000	1.735038	3280.000000
2.020428	7.000000	1.734628	3724.000000
2.019865	-4.000000	1.734219	4281.000000
2.019303	8.000000	1.733809	4961.000000
2.018741	-1.000000	1.733400	5717.000000
2.018179	-2.000000	1.732991	6547.000000
2.017617	-1.000000	1.732583	7540.000000
2.017056	-2.000000	1.732174	8697.000000
2.016495	-10.000000	1.731766	10016.000000
2.015935	9.000000	1.731358	11634.000000
2.015374	13.000000	1.730950	13434.000000
2.014814	-5.000000	1.730542	15478.000000
2.014255	2.000000	1.730134	17803.000000
2.013695	-6.000000	1.729727	20474.000000
2.013136	2.000000	1.729320	23456.000000
2.012578	9.000000	1.728913	26863.000000
2.012019	0.000000	1.728506	30724.000000
2.011461	4.000000	1.728099	34864.000000
2.010903	-2.000000	1.727693	39514.000000
2.010346	7.000000	1.727286	44582.000000
2.009789	11.000000	1.726880	50058.000000
2.009232	5.000000	1.726475	55936.000000
2.008675	0.000000	1.726069	62376.000000
2.008119	11.000000	1.725663	68929.000000
2.007563	7.000000	1.725258	75826.000000
2.007007	3.000000	1.724853	82910.000000
2.006452	-4.000000	1.724448	90215.000000
2.005897	5.000000	1.724043	97888.000000
2.005342	7.000000	1.723639	106032.000000
2.004788	-4.000000	1.723234	113196.000000
2.004234	7.000000	1.722830	120773.000000
2.003680	2.000000	1.722426	127142.000000
2.003127	12.000000	1.722023	133842.000000
2.002573	1.000000	1.721619	139612.000000
2.002021	4.000000	1.721216	144599.000000
2.001468	12.000000	1.720812	148390.000000
2.000916	5.000000	1.720409	151403.000000
2.000364	3.000000	1.720006	153353.000000
1.999812	-3.000000	1.719604	154377.000000
1.999261	8.000000	1.719201	154139.000000
1.998710	-4.000000	1.718799	152683.000000
1.998159	0.000000	1.718397	150006.000000
1.997609	2.000000	1.717995	146812.000000
1.997058	4.000000	1.717593	142365.000000
1.996509	7.000000	1.717192	137386.000000
1.995959	7.000000	1.716791	132148.000000
1.995410	4.000000	1.716389	126285.000000
1.994861	-2.000000	1.715989	120504.000000
1.994312	5.000000	1.715588	114491.000000
1.993764	14.000000	1.715187	108259.000000
1.993216	3.000000	1.714787	101634.000000
1.992668	6.000000	1.714387	95397.000000
1.992121	13.000000	1.713987	89071.000000
1.991574	9.000000	1.713587	83145.000000
1.991027	3.000000	1.713187	76940.000000
1.990480	1.000000	1.712788	71186.000000
1.989934	-1.000000	1.712388	64949.000000
1.989388	10.000000	1.711989	59484.000000
1.988843	3.000000	1.711590	53790.000000
1.988297	5.000000	1.711192	48602.000000
1.987752	3.000000	1.710793	44356.000000
1.987208	-7.000000	1.710395	40381.000000
1.986663	-1.000000	1.709997	36742.000000
1.986119	-2.000000	1.709599	33273.000000
1.985575	5.000000	1.709201	30321.000000
1.985032	11.000000	1.708803	27567.000000
1.984489	5.000000	1.708406	25138.000000
1.983946	-1.000000	1.708009	22872.000000
1.983403	-6.000000	1.707612	20667.000000
1.982861	5.000000	1.707215	18885.000000
1.982319	5.000000	1.706818	17393.000000
1.981777	5.000000	1.706422	15938.000000
1.981235	1.000000	1.706025	14654.000000
1.980694	7.000000	1.705629	13415.000000
1.980153	4.000000	1.705233	12362.000000
1.979613	12.000000	1.704837	11334.000000
1.979073	3.000000	1.704442	10395.000000
1.978533	10.000000	1.704046	9644.000000
1.977993	6.000000	1.703651	8831.000000
1.977454	11.000000	1.703256	8053.000000
1.976914	1.000000	1.702861	7482.000000
1.976376	-2.000000	1.702467	6916.000000
1.975837	3.000000	1.702072	6272.000000
1.975299	5.000000	1.701678	5846.000000
1.974761	0.000000	1.701284	5353.000000
1.974223	9.000000	1.700890	4954.000000
1.973686	0.000000	1.700496	4632.000000
1.973149	8.000000	1.700103	4344.000000
1.972612	8.000000	1.699709	3995.000000
1.972076	3.000000	1.699316	3724.000000
1.971540	6.000000	1.698923	3445.000000
1.971004	14.000000	1.698530	3233.000000
1.970468	-4.000000	1.698138	3007.000000
1.969933	10.000000	1.697745	2772.000000
1.969398	9.000000	1.697353	2575.000000
1.968863	-5.000000	1.696961	2438.000000
1.968329	7.000000	1.696569	2234.000000
1.967795	15.000000	1.696177	2110.000000
1.967261	5.000000	1.695785	1992.000000
1.966727	8.000000	1.695394	1853.000000
1.966194	7.000000	1.695003	1728.000000
1.965661	8.000000	1.694612	1622.000000
1.965128	-8.000000	1.694221	1548.000000
1.964596	2.000000	1.693830	1468.000000
1.964064	-2.000000	1.693440	1399.000000
1.963532	12.000000	1.693050	1286.000000
1.963001	2.000000	1.692659	1202.000000
1.962469	-2.000000	1.692269	1103.000000
1.961938	9.000000	1.691880	1065.000000
1.961408	3.000000	1.691490	978.000000
1.960877	5.000000	1.691101	915.000000
1.960347	14.000000	1.690711	859.000000
1.959817	0.000000	1.690322	811.000000
1.959288	3.000000	1.689934	762.000000
1.958759	5.000000	1.689545	723.000000
1.958230	13.000000	1.689156	686.000000
1.957701	4.000000	1.688768	634.000000
1.957173	2.000000	1.688380	625.000000
1.956645	0.000000	1.687992	608.000000
1.956117	5.000000	1.687604	579.000000
1.955589	7.000000	1.687217	573.000000
1.955062	-2.000000	1.686829	548.000000
1.954535	13.000000	1.686442	536.000000
1.954008	9.000000	1.686055	524.000000
1.953482	7.000000	1.685668	524.000000
1.952956	0.000000	1.685281	505.000000
1.952430	7.000000	1.684895	500.000000
1.951905	8.000000	1.684508	504.000000
1.951379	4.000000	1.684122	475.000000
1.950854	7.000000	1.683736	477.000000
1.950330	8.000000	1.683350	474.000000
1.949805	-5.000000	1.682964	454.000000
1.949281	-3.000000	1.682579	459.000000
1.948757	7.000000	1.682194	439.000000
1.948234	4.000000	1.681809	416.000000
1.947711	8.000000	1.681424	425.000000
1.947188	11.000000	1.681039	390.000000
1.946665	4.000000	1.680654	375.000000
1.946142	4.000000	1.680270	368.000000
1.945620	5.000000	1.679885	351.000000
1.945098	3.000000	1.679501	326.000000
1.944577	4.000000	1.679117	304.000000
1.944055	4.000000	1.678734	317.000000
1.943534	-6.000000	1.678350	299.000000
1.943014	7.000000	1.677967	294.000000
1.942493	6.000000	1.677584	273.000000
1.941973	13.000000	1.677201	266.000000
1.941453	4.000000	1.676818	279.000000
1.940933	5.000000	1.676435	259.000000
1.940414	0.000000	1.676053	249.000000
1.939895	11.000000	1.675670	252.000000
1.939376	8.000000	1.675288	227.000000
1.938858	0.000000	1.674906	227.000000
1.938339	1.000000	1.674524	233.000000
1.937821	4.000000	1.674143	219.000000
1.937304	11.000000	1.673761	232.000000
1.936786	9.000000	1.673380	213.000000
1.936269	8.000000	1.672999	204.000000
1.935752	8.000000	1.672618	199.000000
1.935236	4.000000	1.672237	196.000000
1.934719	11.000000	1.671856	197.000000
1.934203	7.000000	1.671476	187.000000
1.933688	2.000000	1.671096	193.000000
1.933172	7.000000	1.670716	173.000000
1.932657	2.000000	1.670336	175.000000
1.932142	-2.000000	1.669956	179.000000
1.931627	6.000000	1.669577	161.000000
1.931113	14.000000	1.669197	157.000000
1.930599	-2.000000	1.668818	152.000000
1.930085	14.000000	1.668439	159.000000
1.929571	9.000000	1.668060	148.000000
1.929058	9.000000	1.667681	154.000000
1.928545	10.000000	1.667303	133.000000
1.928032	6.000000	1.666925	136.000000
1.927520	10.000000	1.666546	128.000000
1.927007	12.000000	1.666168	123.000000
1.926496	10.000000	1.665790	113.000000
1.925984	16.000000	1.665413	104.000000
1.925472	7.000000	1.665035	128.000000
1.924961	13.000000	1.664658	104.000000
1.924451	9.000000	1.664281	105.000000
1.923940	18.000000	1.663904	113.000000
1.923430	13.000000	1.663527	103.000000
1.922920	21.000000	1.663150	90.000000
1.922410	20.000000	1.662774	110.000000
1.921900	22.000000	1.662398	104.000000
1.921391	21.000000	1.662022	105.000000
1.920882	12.000000	1.661646	94.000000
1.920373	14.000000	1.661270	91.000000
1.919865	19.000000	1.660894	81.000000
1.919357	21.000000	1.660519	74.000000
1.918849	21.000000	1.660143	83.000000
1.918341	19.000000	1.659768	83.000000
1.917834	20.000000	1.659393	84.000000
1.917327	11.000000	1.659019	74.000000
1.916820	23.000000	1.658644	76.000000
1.916314	17.000000	1.658270	77.000000
1.915807	21.000000	1.657895	68.000000
1.915301	25.000000	1.657521	74.000000
1.914796	24.000000	1.657147	61.000000
1.914290	27.000000	1.656774	64.000000
1.913785	30.000000	1.656400	61.000000
1.913280	43.000000	1.656027	72.000000
1.912775	35.000000	1.655653	53.000000
1.912271	43.000000	1.655280	57.000000
1.911767	47.000000	1.654907	66.000000
1.911263	56.000000	1.654535	59.000000
1.910759	51.000000	1.654162	65.000000
1.910256	65.000000	1.653790	48.000000
1.909753	66.000000	1.653417	54.000000
1.909250	71.000000	1.653045	58.000000
1.908748	85.000000	1.652673	56.000000
1.908245	104.000000	1.652302	69.000000
1.907743	115.000000	1.651930	59.000000
1.907241	128.000000	1.651559	62.000000
1.906740	144.000000	1.651187	58.000000
1.906239	174.000000	1.650816	60.000000
1.905738	181.000000	1.650445	60.000000
1.905237	202.000000	1.650075	51.000000
1.904737	214.000000	1.649704	55.000000
1.904236	244.000000	1.649334	48.000000
1.903737	256.000000	1.648964	57.000000
1.903237	290.000000	1.648593	50.000000
1.902738	320.000000	1.648224	53.000000
1.902238	364.000000	1.647854	60.000000
1.901740	381.000000	1.647484	46.000000
1.901241	424.000000	1.647115	62.000000
1.900743	462.000000	1.646746	44.000000
1.900244	506.000000	1.646376	65.000000
1.899747	557.000000	1.646008	47.000000
1.899249	626.000000	1.645639	54.000000
1.898752	669.000000	1.645270	51.000000
1.898255	742.000000	1.644902	47.000000
1.897758	807.000000	1.644534	49.000000
1.897261	889.000000	1.644166	53.000000
1.896765	957.000000	1.643798	44.000000
1.896269	1064.000000	1.643430	50.000000
1.895773	1164.000000	1.643062	48.000000
1.895278	1254.000000	1.642695	41.000000
1.894783	1402.000000	1.642328	53.000000
1.894288	1538.000000	1.641960	52.000000
1.893793	1693.000000	1.641594	61.000000
1.893299	1841.000000	1.641227	52.000000
1.892804	1971.000000	1.640860	48.000000
1.892311	2174.000000	1.640494	46.000000
1.891817	2377.000000	1.640127	50.000000
1.891323	2602.000000	1.639761	43.000000
1.890830	2816.000000	1.639395	53.000000
1.890337	3131.000000	1.639030	50.000000
1.889845	3383.000000	1.638664	55.000000
1.889352	3591.000000	1.638298	50.000000
1.888860	3890.000000	1.637933	57.000000
1.888368	4238.000000	1.637568	42.000000
1.887877	4550.000000	1.637203	43.000000
1.887385	4911.000000	1.636838	52.000000
1.886894	5325.000000	1.636474	58.000000
1.886403	5713.000000	1.636109	47.000000
1.885913	6151.000000	1.635745	45.000000
1.885423	6668.000000	1.635381	41.000000
1.884932	7102.000000	1.635017	55.000000
1.884443	7673.000000	1.634653	52.000000
1.883953	8186.000000	1.634289	50.000000
1.883464	8767.000000	1.633926	49.000000
1.882975	9382.000000	1.633562	50.000000
1.882486	9894.000000	1.633199	48.000000
1.881997	10609.000000	1.632836	43.000000
1.881509	11259.000000	1.632473	58.000000
1.881021	11897.000000	1.632110	50.000000
1.880533	12637.000000	1.631748	57.000000
1.880046	13260.000000	1.631385	40.000000
1.879558	13905.000000	1.631023	51.000000
1.879071	14652.000000	1.630661	56.000000
1.878584	15386.000000	1.630299	48.000000
1.878098	15937.000000	1.629938	59.000000
1.877612	16539.000000	1.629576	64.000000
1.877126	17150.000000	1.629215	41.000000
1.876640	17647.000000	1.628853	58.000000
1.876154	18130.000000	1.628492	58.000000
1.875669	18492.000000	1.628131	47.000000
1.875184	18902.000000	1.627770	47.000000
1.874699	19124.000000	1.627410	60.000000
1.874215	19282.000000	1.627049	68.000000
1.873730	19364.000000	1.626689	50.000000
1.873246	19346.000000	1.626329	54.000000
1.872763	19321.000000	1.625969	53.000000
1.872279	19047.000000	1.625609	54.000000
1.871796	18698.000000	1.625249	49.000000
1.871313	18421.000000	1.624890	53.000000
1.870830	17965.000000	1.624531	61.000000
1.870347	17487.000000	1.624171	61.000000
1.869865	16891.000000	1.623812	56.000000
1.869383	16418.000000	1.623453	52.000000
1.868901	15743.000000	1.623095	61.000000
1.868420	15032.000000	1.622736	69.000000
1.867939	14331.000000	1.622378	61.000000
1.867458	13555.000000	1.622020	56.000000
1.866977	12845.000000	1.621662	50.000000
1.866496	12154.000000	1.621304	54.000000
1.866016	11450.000000	1.620946	58.000000
1.865536	10686.000000	1.620588	62.000000
1.865056	9990.000000	1.620231	52.000000
1.864577	9321.000000	1.619873	67.000000
1.864097	8656.000000	1.619516	57.000000
1.863618	8054.000000	1.619159	58.000000
1.863139	7470.000000	1.618803	65.000000
1.862661	6905.000000	1.618446	64.000000
1.862182	6426.000000	1.618089	64.000000
1.861704	5939.000000	1.617733	53.000000
1.861227	5487.000000	1.617377	54.000000
1.860749	5033.000000	1.617021	57.000000
1.860272	4552.000000	1.616665	56.000000
1.859794	4168.000000	1.616309	68.000000
1.859318	3825.000000	1.615954	65.000000
1.858841	3482.000000	1.615598	53.000000
1.858365	3187.000000	1.615243	66.000000
1.857889	2899.000000	1.614888	65.000000
1.857413	2628.000000	1.614533	57.000000
1.856937	2405.000000	1.614178	62.000000
1.856462	2198.000000	1.613824	67.000000
1.855987	2007.000000	1.613469	57.000000
1.855512	1820.000000	1.613115	56.000000
1.855037	1648.000000	1.612761	59.000000
1.854563	1528.000000	1.612407	58.000000
1.854088	1405.000000	1.612053	61.000000
1.853614	1285.000000	1.611699	72.000000
1.853141	1186.000000	1.611346	57.000000
1.852667	1089.000000	1.610992	60.000000
1.852194	1012.000000	1.610639	66.000000
1.851721	926.000000	1.610286	64.000000
1.851248	865.000000	1.609933	62.000000
1.850776	794.000000	1.609580	69.000000
1.850304	735.000000	1.609228	62.000000
1.849832	719.000000	1.608875	69.000000
1.849360	667.000000	1.608523	60.000000
1.848888	636.000000	1.608171	64.000000
1.848417	611.000000	1.607819	66.000000
1.847946	580.000000	1.607467	62.000000
1.847475	554.000000	1.607115	70.000000
1.847005	540.000000	1.606764	61.000000
1.846534	516.000000	1.606412	63.000000
1.846064	515.000000	1.606061	60.000000
1.845594	484.000000	1.605710	70.000000
1.845125	481.000000	1.605359	67.000000
1.844656	465.000000	1.605008	61.000000
1.844186	467.000000	1.604658	67.000000
1.843718	448.000000	1.604307	61.000000
1.843249	455.000000	1.603957	62.000000
1.842780	451.000000	1.603607	68.000000
1.842312	453.000000	1.603257	69.000000
1.841844	436.000000	1.602907	64.000000
1.841377	450.000000	1.602557	71.000000
1.840909	454.000000	1.602208	62.000000
1.840442	441.000000	1.601858	68.000000
1.839975	468.000000	1.601509	63.000000
1.839508	460.000000	1.601160	76.000000
1.839042	448.000000	1.600811	61.000000
1.838575	453.000000	1.600462	72.000000
1.838109	465.000000	1.600114	78.000000
1.837644	446.000000	1.599765	62.000000
1.837178	457.000000	1.599417	73.000000
1.836713	455.000000	1.599069	69.000000
1.836248	437.000000	1.598721	66.000000
1.835783	454.000000	1.598373	71.000000
1.835318	438.000000	1.598025	68.000000
1.834854	438.000000	1.597678	66.000000
1.834390	422.000000	1.597330	61.000000
1.833926	415.000000	1.596983	72.000000
1.833462	406.000000	1.596636	70.000000
1.832999	400.000000	1.596289	61.000000
1.832535	383.000000	1.595942	67.000000
1.832072	384.000000	1.595595	72.000000
1.831610	373.000000	1.595249	68.000000
1.831147	363.000000	1.594902	66.000000
1.830685	377.000000	1.594556	68.000000
1.830223	345.000000	1.594210	70.000000
1.829761	330.000000	1.593864	78.000000
1.829299	336.000000	1.593519	69.000000
1.828838	336.000000	1.593173	71.000000
1.828377	334.000000	1.592828	73.000000
1.827916	309.000000	1.592482	70.000000
1.827455	313.000000	1.592137	70.000000
1.826995	294.000000	1.591792	61.000000
1.826535	299.000000	1.591447	80.000000
1.826075	287.000000	1.591102	70.000000
1.825615	272.000000	1.590758	77.000000
1.825156	276.000000	1.590413	69.000000
1.824696	254.000000	1.590069	80.000000
1.824237	251.000000	1.589725	73.000000
1.823779	246.000000	1.589381	67.000000
1.823320	236.000000	1.589037	71.000000
1.822862	235.000000	1.588694	65.000000
1.822404	220.000000	1.588350	67.000000
1.821946	217.000000	1.588007	79.000000
1.821488	213.000000	1.587664	71.000000
1.821031	201.000000	1.587321	80.000000
1.820574	200.000000	1.586978	72.000000
1.820117	195.000000	1.586635	75.000000
1.819660	173.000000	1.586292	77.000000
1.819203	177.000000	1.585950	75.000000
1.818747	167.000000	1.585607	71.000000
1.818291	147.000000	1.585265	71.000000
1.817835	154.000000	1.584923	76.000000
1.817380	144.000000	1.584581	73.000000
1.816924	139.000000	1.584240	79.000000
1.816469	125.000000	1.583898	61.000000
1.816014	116.000000	1.583556	69.000000
1.815560	115.000000	1.583215	72.000000
1.815105	118.000000	1.582874	75.000000
1.814651	110.000000	1.582533	71.000000
1.814197	101.000000	1.582192	77.000000
1.813743	92.000000	1.581851	69.000000
1.813290	98.000000	1.581511	71.000000
1.812836	90.000000	1.581170	70.000000
1.812383	79.000000	1.580830	73.000000
1.811930	75.000000	1.580490	76.000000
1.811478	76.000000	1.580150	75.000000
1.811025	83.000000	1.579810	78.000000
1.810573	70.000000	1.579471	72.000000
1.810121	70.000000	1.579131	76.000000
1.809670	72.000000	1.578792	87.000000
1.809218	71.000000	1.578452	75.000000
1.808767	64.000000	1.578113	77.000000
1.808316	74.000000	1.577774	70.000000
1.807865	57.000000	1.577436	71.000000
1.807414	53.000000	1.577097	83.000000
1.806964	49.000000	1.576758	79.000000
1.806514	54.000000	1.576420	71.000000
1.806064	57.000000	1.576082	77.000000
1.805614	58.000000	1.575744	72.000000
1.805165	49.000000	1.575406	72.000000
1.804715	42.000000	1.575068	72.000000
1.804266	49.000000	1.574730	78.000000
1.803818	50.000000	1.574393	71.000000
1.803369	47.000000	1.574055	66.000000
1.802921	36.000000	1.573718	75.000000
1.802472	46.000000	1.573381	78.000000
1.802025	39.000000	1.573044	80.000000
1.801577	46.000000	1.572707	78.000000
1.801129	38.000000	1.572371	75.000000
1.800682	51.000000	1.572034	76.000000
1.800235	42.000000	1.571698	68.000000
1.799788	44.000000	1.571362	77.000000
1.799342	38.000000	1.571026	69.000000
1.798895	40.000000	1.570690	75.000000
1.798449	42.000000	1.570354	75.000000
1.798003	49.000000	1.570018	78.000000
1.797558	39.000000	1.569683	88.000000
1.797112	39.000000	1.569347	81.000000
1.796667	35.000000	1.569012	70.000000
1.796222	39.000000	1.568677	79.000000
1.795777	38.000000	1.568342	88.000000
1.795332	52.000000	1.568008	76.000000
1.794888	36.000000	1.567673	69.000000
1.794444	42.000000	1.567338	72.000000
1.794000	40.000000	1.567004	76.000000
1.793556	34.000000	1.566670	79.000000
1.793113	45.000000	1.566336	79.000000
1.792670	36.000000	1.566002	75.000000
1.792226	40.000000	1.565668	82.000000
1.791784	37.000000	1.565334	71.000000
1.791341	34.000000	1.565001	86.000000
1.790899	34.000000	1.564668	82.000000
1.790456	45.000000	1.564334	86.000000
1.790014	33.000000	1.564001	70.000000
1.789573	25.000000	1.563668	76.000000
1.789131	30.000000	1.563336	78.000000
1.788690	28.000000	1.563003	78.000000
1.788249	36.000000	1.562670	80.000000
1.787808	38.000000	1.562338	86.000000
1.787367	33.000000	1.562006	79.000000
1.786927	42.000000	1.561674	78.000000
1.786487	38.000000	1.561342	82.000000
1.786047	38.000000	1.561010	74.000000
1.785607	33.000000	1.560678	70.000000
1.785167	30.000000	1.560347	81.000000
1.784728	36.000000	1.560016	84.000000
1.784289	43.000000	1.559684	69.000000
1.783850	25.000000	1.559353	83.000000
1.783411	25.000000	1.559022	73.000000
1.782973	42.000000	1.558692	71.000000
1.782534	18.000000	1.558361	82.000000
1.782096	28.000000	1.558030	82.000000
1.781658	34.000000	1.557700	75.000000
1.781221	37.000000	1.557370	73.000000
1.780783	42.000000	1.557040	85.000000
1.780346	36.000000	1.556710	79.000000
1.779909	32.000000	1.556380	88.000000
1.779472	32.000000	1.556050	78.000000
1.779036	31.000000	1.555721	83.000000
